ARQUIVO DE MEDIDA
Usuário: 
Amostra: 
Comentário: 
Parâmetros: vmode 1 sen 27 acgain 0 tc 10 23.000000 4.000000
Magnitude (mV)	Comprimento de onda(nm)
0.100000	200.000000
0.100000	209.993518
0.100000	219.997843
0.100000	229.999691
0.100000	239.998951
0.100000	249.995510
0.100000	259.989255
0.100000	269.980075
0.100000	279.967855
0.100000	289.952485
0.100000	299.967229
0.100000	309.978574
0.200000	319.986407
0.200000	329.990614
0.200000	339.991083
0.200000	349.987699
0.200000	359.980351
0.200000	369.968923
0.500000	379.953305
0.800000	389.966640
1.300000	399.975528
1.800000	409.979855
2.300000	419.979505
2.800000	429.974365
3.600000	439.964320
4.600000	449.949258
5.800000	459.962211
6.900000	469.969883
8.000000	479.972159
9.000000	489.968924
10.000000	499.960063
11.000000	509.945462
12.000000	519.958041
13.200000	529.964611
14.200000	539.965056
15.300000	549.959260
16.400000	559.947107
17.400000	569.961414
18.300000	579.969090
19.100000	589.970019
19.900000	599.964084
20.600000	609.951169
21.200000	619.963975
22.200000	629.969520
23.100000	639.967689
23.800000	649.958362
24.200000	659.974143
24.000000	669.982145
23.900000	679.982249
23.600000	689.974337
23.000000	699.958293
22.300000	709.966584
21.100000	719.966452
19.700000	729.957777
18.300000	739.972944
16.600000	749.979275
15.000000	759.976649
13.900000	769.964947
13.200000	779.976434
12.900000	789.978547
12.300000	799.971163
11.500000	809.986456
10.600000	819.991950
9.700000	829.987524
8.900000	839.973057
7.300000	849.980590
4.800000	859.977774
2.300000	869.964487
0.800000	879.972667
0.200000	889.970064
0.100000	899.956554
0.100000	909.963971
0.100000	919.960166
0.100000	929.945014
0.100000	939.950239
0.100000	949.943797
0.100000	959.957334
0.100000	969.958880
0.100000	979.948311
0.100000	989.957154
0.200000	999.953553
0.200000	1009.951125
0.200000	1019.973245
0.200000	1029.992398
0.200000	1040.008556
0.200000	1050.021689
0.200000	1060.031768
0.200000	1070.038764
0.200000	1080.042648
0.400000	1090.043390
0.500000	1100.040962
