ARQUIVO DE MEDIDA
Usuário: 
Amostra: 
Comentário: 
Parâmetros: vmode 1 sen 27 acgain 0 tc 10 23.000000 4.000000
Magnitude (mV)	Comprimento de onda(nm)
0.000000	200.000000
0.000000	209.993518
0.000000	219.997843
0.000000	229.999691
0.000000	239.998951
0.000000	249.995510
0.000000	259.989255
0.000000	269.980075
0.000000	279.967855
0.000000	289.952485
0.000000	299.967229
0.000000	309.978574
0.000000	319.986407
0.000000	329.990614
0.000000	339.991083
0.000000	349.987699
0.000000	359.980351
0.000000	369.968923
0.100000	379.953305
0.100000	389.966640
0.100000	399.975528
0.100000	409.979855
0.100000	419.979505
0.100000	429.974365
0.100000	439.964320
0.100000	449.949258
0.100000	459.962211
0.100000	469.969883
0.100000	479.972159
0.200000	489.968924
0.200000	499.960063
0.200000	509.945462
0.200000	519.958041
0.200000	529.964611
0.400000	539.965056
0.400000	549.959260
0.400000	559.947107
0.500000	569.961414
0.500000	579.969090
0.500000	589.970019
0.600000	599.964084
0.600000	609.951169
0.600000	619.963975
0.700000	629.969520
0.700000	639.967689
0.700000	649.958362
0.800000	659.974143
0.800000	669.982145
0.900000	679.982249
0.800000	689.974337
0.800000	699.958293
0.700000	709.966584
0.700000	719.966452
0.700000	729.957777
0.700000	739.972944
0.700000	749.979275
0.500000	759.976649
0.500000	769.964947
0.500000	779.976434
0.400000	789.978547
0.400000	799.971163
0.400000	809.986456
0.400000	819.991950
0.400000	829.987524
0.300000	839.973057
0.200000	849.980590
0.200000	859.977774
0.200000	869.964487
0.100000	879.972667
0.100000	889.970064
0.100000	899.956554
0.100000	909.963971
0.100000	919.960166
0.100000	929.945014
0.100000	939.950239
0.100000	949.943797
0.100000	959.957334
0.000000	969.958880
0.100000	979.948311
0.000000	989.957154
0.000000	999.953553
0.100000	1009.951125
0.100000	1019.973245
0.100000	1029.992398
0.100000	1040.008556
0.100000	1050.021689
0.000000	1060.031768
0.000000	1070.038764
0.100000	1080.042648
0.100000	1090.043390
0.100000	1100.040962
0.100000	1110.035334
0.100000	1120.026478
0.100000	1130.014365
0.100000	1139.998964
0.100000	1149.980248
0.100000	1159.958187
0.100000	1169.932753
0.100000	1179.903916
0.100000	1189.871646
0.100000	1199.901459
0.100000	1209.927737
0.200000	1219.950448
0.200000	1229.969564
0.200000	1239.985056
0.200000	1249.996894
0.300000	1260.005048
0.300000	1270.009489
0.400000	1280.010187
0.400000	1290.007114
0.500000	1300.000238
